# wave transmission
5100.21 0.0001
5130.05 0.0001
5159.9 0.0002
5190.3 0.0002
5220.14 0.0002
5249.97 0.0003
5280.36 0.0006
5310.19 0.0011
5340.57 0.0021
5370.38 0.0042
5400.19 0.0077
5430.56 0.0133
5460.36 0.0228
5490.72 0.0419
5520.51 0.0797
5550.85 0.1483
5580.63 0.2555
5610.97 0.3707
5640.74 0.4627
5671.07 0.5393
5700.83 0.6074
5731.15 0.6643
5760.9 0.6965
5791.21 0.7069
5820.95 0.7077
5851.25 0.71
5880.98 0.7123
5911.27 0.7151
5940.99 0.7154
5971.27 0.7151
6001.54 0.7186
6031.24 0.7243
6061.5 0.7305
6091.2 0.7317
6121.45 0.7274
6151.69 0.7185
6181.38 0.7085
6211.61 0.6997
6241.84 0.6921
6271.5 0.6892
6301.72 0.6904
6331.93 0.6942
6361.58 0.7001
6391.78 0.7055
6421.97 0.7072
6452.16 0.7021
6481.78 0.6947
6511.96 0.6886
6542.13 0.6859
6572.3 0.6853
6601.9 0.688
6632.06 0.6897
6662.21 0.6879
6692.35 0.6837
6722.49 0.6768
6752.62 0.674
6782.18 0.6749
6812.3 0.6795
6842.41 0.6823
6872.52 0.674
6902.62 0.6352
6932.72 0.5449
6962.8 0.4094
6992.89 0.2754
7022.96 0.1817
7053.03 0.1265
7083.1 0.1004
7113.15 0.0959
7143.2 0.102
7173.25 0.0786
7203.29 0.0306
7233.32 0.0087
7263.34 0.0028
7293.36 0.0011
7323.37 0.0005
7353.38 0.0002
7383.38 0.0001
7413.37 0.0001
